
#Here is the LBQS composite spectrum, taken from
#Francis et al. (1991) ApJ 373, 465. The first
#column is the rest-frame wavelength in Angstroms,
#the second the flux in energy per unit wavelength.

#You are welcome to use this data in any way
#you like, though please acknowlege its source!

#Paul Francis

#nb. No attempt was made to remove absorption from
#the individual spectra before co-addition (though BALQSOs
#were removed from the sample). On average this makes 
#little difference - the sample is large enough to average the
#absorption out. However, associated absorption near the
#peak of Ly-alpha is enough to lower its equivalent
#width significantly in the composite.


   800.0000      0.8778315
   802.5000      0.9120747
   805.0000      0.6071863
   807.5000      0.4995252
   810.0000      0.6396102
   812.5000      0.6545966
   815.0000      0.5835355
   817.5000      0.8092773
   820.0000      0.7093036
   822.5000      0.7418095
   825.0000      0.7148849
   827.5000      0.5294613
   830.0000      0.4087479
   832.5000      0.3060298
   835.0000      0.6596816
   837.5000      0.8656101
   840.0000      0.7855011
   842.5000      0.9126173
   845.0000      0.9420581
   847.5000       1.014574
   850.0000      0.8181470
   852.5000      0.9562206
   855.0000       1.240843
   857.5000       1.086691
   860.0000      0.9683338
   862.5000       1.002634
   865.0000       1.216059
   867.5000       1.051032
   870.0000       1.262604
   872.5000       1.355684
   875.0000       1.430773
   877.5000       1.547074
   880.0000       1.606675
   882.5000       1.514375
   885.0000       1.677873
   887.5000       1.520999
   890.0000       1.498857
   892.5000       1.470563
   895.0000       1.668100
   897.5000       1.620695
   900.0000       1.765081
   902.5000       2.047283
   905.0000       2.060088
   907.5000       2.079311
   910.0000       2.280979
   912.5000       2.240971
   915.0000       2.460501
   917.5000       2.605949
   920.0000       2.444905
   922.5000       2.595989
   925.0000       2.695604
   927.5000       2.616528
   930.0000       2.695803
   932.5000       2.996540
   935.0000       2.993635
   937.5000       2.540556
   940.0000       3.152762
   942.5000       3.183073
   945.0000       3.217386
   947.5000       3.096202
   950.0000       3.387102
   952.5000       3.336559
   955.0000       3.209876
   957.5000       3.166862
   960.0000       2.887212
   962.5000       3.188136
   965.0000       2.931162
   967.5000       3.108038
   970.0000       3.132957
   972.5000       3.375390
   975.0000       3.561688
   977.5000       3.722327
   980.0000       3.556715
   982.5000       3.573391
   985.0000       3.536865
   987.5000       3.590084
   990.0000       3.715581
   992.5000       3.671348
   995.0000       3.624805
   997.5000       3.554011
   1000.000       3.422108
   1002.500       3.499042
   1005.000       3.631175
   1007.500       3.618515
   1010.000       3.763944
   1012.500       3.504183
   1015.000       3.614904
   1017.500       3.646142
   1020.000       3.448768
   1022.500       3.717016
   1025.000       3.747879
   1027.500       4.317084
   1030.000       4.457333
   1032.500       4.702432
   1035.000       4.835813
   1037.500       4.679083
   1040.000       4.420286
   1042.500       4.275189
   1045.000       3.901164
   1047.500       3.798218
   1050.000       3.760669
   1052.500       3.469979
   1055.000       3.465771
   1057.500       3.524174
   1060.000       3.756171
   1062.500       3.744006
   1065.000       3.462804
   1067.500       3.532288
   1070.000       3.450333
   1072.500       3.363664
   1075.000       3.458445
   1077.500       3.497821
   1080.000       3.558266
   1082.500       3.693443
   1085.000       3.712460
   1087.500       3.623302
   1090.000       3.609780
   1092.500       3.570000
   1095.000       3.416039
   1097.500       3.395758
   1100.000       3.245918
   1102.500       3.349026
   1105.000       3.237492
   1107.500       3.400038
   1110.000       3.334976
   1112.500       3.328557
   1115.000       3.372773
   1117.500       3.573289
   1120.000       3.627361
   1122.500       3.629818
   1125.000       3.611116
   1127.500       3.594983
   1130.000       3.584852
   1132.500       3.598033
   1135.000       3.436081
   1137.500       3.525971
   1140.000       3.444042
   1142.500       3.428255
   1145.000       3.370903
   1147.500       3.162243
   1150.000       3.133912
   1152.500       3.253545
   1155.000       3.332858
   1157.500       3.527226
   1160.000       3.459350
   1162.500       3.467232
   1165.000       3.666861
   1167.500       3.693075
   1170.000       3.666508
   1172.500       3.870107
   1175.000       3.844283
   1177.500       3.977914
   1180.000       3.964085
   1182.500       4.129086
   1185.000       4.144233
   1187.500       4.342583
   1190.000       4.510104
   1192.500       4.784302
   1195.000       4.874970
   1197.500       5.203969
   1200.000       5.430116
   1202.500       5.882025
   1205.000       6.368980
   1207.500       6.990024
   1210.000       7.843137
   1212.500       8.497060
   1215.000       9.091032
   1217.500       9.717818
   1220.000       9.425836
   1222.500       8.890214
   1225.000       7.667515
   1227.500       7.638235
   1230.000       7.338923
   1232.500       7.504928
   1235.000       7.501543
   1237.500       7.544841
   1240.000       7.483409
   1242.500       7.272558
   1245.000       6.749980
   1247.500       6.330717
   1250.000       5.907094
   1252.500       5.568252
   1255.000       5.281852
   1257.500       5.089100
   1260.000       5.026525
   1262.500       4.955883
   1265.000       4.851150
   1267.500       4.745571
   1270.000       4.605153
   1272.500       4.510860
   1275.000       4.277409
   1277.500       4.164057
   1280.000       4.123919
   1282.500       4.038373
   1285.000       3.954057
   1287.500       3.938138
   1290.000       3.972026
   1292.500       3.992244
   1295.000       4.081935
   1297.500       4.068928
   1300.000       4.096859
   1302.500       4.139040
   1305.000       4.279501
   1307.500       4.246494
   1310.000       4.213589
   1312.500       4.155079
   1315.000       4.098592
   1317.500       3.940384
   1320.000       3.900517
   1322.500       3.826311
   1325.000       3.797475
   1327.500       3.814797
   1330.000       3.914078
   1332.500       3.956104
   1335.000       4.000909
   1337.500       4.024494
   1340.000       4.013085
   1342.500       3.940488
   1345.000       3.951740
   1347.500       3.876422
   1350.000       3.843254
   1352.500       3.820518
   1355.000       3.786304
   1357.500       3.842924
   1360.000       3.822358
   1362.500       3.796796
   1365.000       3.790980
   1367.500       3.836019
   1370.000       3.881177
   1372.500       3.926317
   1375.000       3.902348
   1377.500       3.938017
   1380.000       4.015194
   1382.500       4.062375
   1385.000       4.172033
   1387.500       4.233698
   1390.000       4.362364
   1392.500       4.414073
   1395.000       4.499578
   1397.500       4.571897
   1400.000       4.572629
   1402.500       4.508256
   1405.000       4.463612
   1407.500       4.323616
   1410.000       4.170081
   1412.500       4.081151
   1415.000       3.971166
   1417.500       3.862544
   1420.000       3.809038
   1422.500       3.716392
   1425.000       3.707452
   1427.500       3.663624
   1430.000       3.626563
   1432.500       3.610090
   1435.000       3.574507
   1437.500       3.576792
   1440.000       3.520421
   1442.500       3.513714
   1445.000       3.483710
   1447.500       3.493261
   1450.000       3.465178
   1452.500       3.490755
   1455.000       3.481013
   1457.500       3.486210
   1460.000       3.478707
   1462.500       3.468273
   1465.000       3.482093
   1467.500       3.455658
   1470.000       3.458600
   1472.500       3.473649
   1475.000       3.467793
   1477.500       3.440985
   1480.000       3.467256
   1482.500       3.509257
   1485.000       3.526460
   1487.500       3.541540
   1490.000       3.592563
   1492.500       3.563093
   1495.000       3.595821
   1497.500       3.665385
   1500.000       3.685225
   1502.500       3.676033
   1505.000       3.725127
   1507.500       3.759482
   1510.000       3.773375
   1512.500       3.855825
   1515.000       3.884649
   1517.500       4.003341
   1520.000       4.030600
   1522.500       4.181903
   1525.000       4.255521
   1527.500       4.402561
   1530.000       4.531719
   1532.500       4.678531
   1535.000       4.818652
   1537.500       5.085311
   1540.000       5.380119
   1542.500       5.658080
   1545.000       5.770969
   1547.500       5.920780
   1550.000       5.842740
   1552.500       5.579437
   1555.000       5.310297
   1557.500       4.990384
   1560.000       4.679628
   1562.500       4.429619
   1565.000       4.265220
   1567.500       4.100201
   1570.000       3.996171
   1572.500       3.886835
   1575.000       3.813100
   1577.500       3.729963
   1580.000       3.693233
   1582.500       3.632638
   1585.000       3.616305
   1587.500       3.593695
   1590.000       3.577521
   1592.500       3.552304
   1595.000       3.516341
   1597.500       3.519501
   1600.000       3.505271
   1602.500       3.515647
   1605.000       3.522627
   1607.500       3.491226
   1610.000       3.487101
   1612.500       3.499441
   1615.000       3.491887
   1617.500       3.492405
   1620.000       3.498100
   1622.500       3.513726
   1625.000       3.516161
   1627.500       3.506542
   1630.000       3.507136
   1632.500       3.523037
   1635.000       3.510442
   1637.500       3.503578
   1640.000       3.508507
   1642.500       3.436769
   1645.000       3.373681
   1647.500       3.337388
   1650.000       3.345477
   1652.500       3.323953
   1655.000       3.333588
   1657.500       3.309443
   1660.000       3.334584
   1662.500       3.374009
   1665.000       3.317036
   1667.500       3.318431
   1670.000       3.291467
   1672.500       3.237724
   1675.000       3.205142
   1677.500       3.175765
   1680.000       3.107654
   1682.500       3.092752
   1685.000       3.061806
   1687.500       3.046044
   1690.000       3.049642
   1692.500       3.043608
   1695.000       3.025386
   1697.500       3.023745
   1700.000       3.011905
   1702.500       3.052711
   1705.000       3.021506
   1707.500       3.061759
   1710.000       3.043150
   1712.500       3.079584
   1715.000       3.041377
   1717.500       3.070188
   1720.000       3.051773
   1722.500       3.063582
   1725.000       3.045284
   1727.500       3.061383
   1730.000       3.055521
   1732.500       3.032804
   1735.000       3.018449
   1737.500       3.013467
   1740.000       3.013103
   1742.500       3.038907
   1745.000       3.029411
   1747.500       3.043561
   1750.000       3.034869
   1752.500       3.040451
   1755.000       2.974782
   1757.500       2.960500
   1760.000       2.952694
   1762.500       2.937502
   1765.000       2.927481
   1767.500       2.902621
   1770.000       2.889167
   1772.500       2.888644
   1775.000       2.899295
   1777.500       2.891891
   1780.000       2.857247
   1782.500       2.871389
   1785.000       2.871938
   1787.500       2.900773
   1790.000       2.877667
   1792.500       2.869066
   1795.000       2.873215
   1797.500       2.827346
   1800.000       2.793559
   1802.500       2.813613
   1805.000       2.807018
   1807.500       2.791765
   1810.000       2.774791
   1812.500       2.796524
   1815.000       2.813767
   1817.500       2.798912
   1820.000       2.789080
   1822.500       2.778177
   1825.000       2.784343
   1827.500       2.778543
   1830.000       2.752896
   1832.500       2.755083
   1835.000       2.798716
   1837.500       2.781712
   1840.000       2.822892
   1842.500       2.846023
   1845.000       2.869804
   1847.500       2.911044
   1850.000       2.941443
   1852.500       2.956749
   1855.000       2.980058
   1857.500       2.997792
   1860.000       3.016204
   1862.500       3.007499
   1865.000       2.996532
   1867.500       3.001281
   1870.000       2.984094
   1872.500       2.983959
   1875.000       3.010822
   1877.500       3.004306
   1880.000       3.064898
   1882.500       3.113131
   1885.000       3.192725
   1887.500       3.252050
   1890.000       3.339034
   1892.500       3.393967
   1895.000       3.440513
   1897.500       3.493063
   1900.000       3.522390
   1902.500       3.548833
   1905.000       3.644262
   1907.500       3.677126
   1910.000       3.624004
   1912.500       3.542475
   1915.000       3.441294
   1917.500       3.341859
   1920.000       3.195144
   1922.500       3.113123
   1925.000       3.061957
   1927.500       2.956796
   1930.000       2.897805
   1932.500       2.863067
   1935.000       2.792767
   1937.500       2.738483
   1940.000       2.686331
   1942.500       2.661144
   1945.000       2.622546
   1947.500       2.599059
   1950.000       2.587622
   1952.500       2.579128
   1955.000       2.568358
   1957.500       2.569689
   1960.000       2.539399
   1962.500       2.493783
   1965.000       2.465684
   1967.500       2.452772
   1970.000       2.440989
   1972.500       2.421883
   1975.000       2.445977
   1977.500       2.424190
   1980.000       2.431513
   1982.500       2.405412
   1985.000       2.401193
   1987.500       2.421694
   1990.000       2.419083
   1992.500       2.434756
   1995.000       2.424007
   1997.500       2.409731
   2000.000       2.418609
   2002.500       2.401682
   2005.000       2.388918
   2007.500       2.385798
   2010.000       2.382508
   2012.500       2.360802
   2015.000       2.346375
   2017.500       2.337741
   2020.000       2.334581
   2022.500       2.340716
   2025.000       2.344599
   2027.500       2.322644
   2030.000       2.338768
   2032.500       2.324977
   2035.000       2.299412
   2037.500       2.299698
   2040.000       2.326188
   2042.500       2.328787
   2045.000       2.323535
   2047.500       2.319416
   2050.000       2.325248
   2052.500       2.305398
   2055.000       2.333380
   2057.500       2.346683
   2060.000       2.369149
   2062.500       2.371568
   2065.000       2.384760
   2067.500       2.369683
   2070.000       2.383907
   2072.500       2.386330
   2075.000       2.361675
   2077.500       2.341978
   2080.000       2.348171
   2082.500       2.331809
   2085.000       2.315669
   2087.500       2.296460
   2090.000       2.273135
   2092.500       2.279072
   2095.000       2.263448
   2097.500       2.258086
   2100.000       2.254408
   2102.500       2.258690
   2105.000       2.257844
   2107.500       2.227325
   2110.000       2.216047
   2112.500       2.209404
   2115.000       2.188217
   2117.500       2.177925
   2120.000       2.119871
   2122.500       2.110866
   2125.000       2.081026
   2127.500       2.098703
   2130.000       2.095726
   2132.500       2.092922
   2135.000       2.098462
   2137.500       2.106808
   2140.000       2.095719
   2142.500       2.090228
   2145.000       2.064118
   2147.500       2.057788
   2150.000       2.049134
   2152.500       2.029190
   2155.000       2.030979
   2157.500       2.003886
   2160.000       2.002659
   2162.500       2.004947
   2165.000       2.020187
   2167.500       2.009036
   2170.000       2.028873
   2172.500       2.034961
   2175.000       2.007577
   2177.500       2.026673
   2180.000       2.018926
   2182.500       2.001140
   2185.000       1.997463
   2187.500       1.977118
   2190.000       1.973858
   2192.500       1.954842
   2195.000       1.942611
   2197.500       1.917253
   2200.000       1.915493
   2202.500       1.909487
   2205.000       1.909478
   2207.500       1.896058
   2210.000       1.914104
   2212.500       1.918529
   2215.000       1.928373
   2217.500       1.938225
   2220.000       1.931766
   2222.500       1.912902
   2225.000       1.930358
   2227.500       1.924447
   2230.000       1.902271
   2232.500       1.884190
   2235.000       1.870730
   2237.500       1.865797
   2240.000       1.878181
   2242.500       1.860000
   2245.000       1.860956
   2247.500       1.872104
   2250.000       1.884003
   2252.500       1.906436
   2255.000       1.869188
   2257.500       1.890456
   2260.000       1.892024
   2262.500       1.880146
   2265.000       1.896348
   2267.500       1.893540
   2270.000       1.884692
   2272.500       1.890436
   2275.000       1.889767
   2277.500       1.888078
   2280.000       1.895292
   2282.500       1.906264
   2285.000       1.911561
   2287.500       1.920072
   2290.000       1.935985
   2292.500       1.935176
   2295.000       1.913182
   2297.500       1.930223
   2300.000       1.943859
   2302.500       1.964554
   2305.000       1.950298
   2307.500       1.961590
   2310.000       1.961464
   2312.500       1.951352
   2315.000       1.965674
   2317.500       1.960012
   2320.000       1.965409
   2322.500       1.974042
   2325.000       1.975823
   2327.500       1.977494
   2330.000       1.981071
   2332.500       1.955016
   2335.000       1.955058
   2337.500       1.948255
   2340.000       1.936422
   2342.500       1.914801
   2345.000       1.899057
   2347.500       1.901534
   2350.000       1.894899
   2352.500       1.867896
   2355.000       1.862211
   2357.500       1.874513
   2360.000       1.878552
   2362.500       1.861260
   2365.000       1.855572
   2367.500       1.855450
   2370.000       1.840032
   2372.500       1.842224
   2375.000       1.841396
   2377.500       1.837668
   2380.000       1.828321
   2382.500       1.826015
   2385.000       1.832046
   2387.500       1.809519
   2390.000       1.829253
   2392.500       1.831599
   2395.000       1.832573
   2397.500       1.846878
   2400.000       1.857941
   2402.500       1.856545
   2405.000       1.825148
   2407.500       1.853427
   2410.000       1.873148
   2412.500       1.886155
   2415.000       1.900357
   2417.500       1.912934
   2420.000       1.933335
   2422.500       1.947766
   2425.000       1.924602
   2427.500       1.888608
   2430.000       1.879824
   2432.500       1.888893
   2435.000       1.863873
   2437.500       1.872932
   2440.000       1.871197
   2442.500       1.846493
   2445.000       1.831983
   2447.500       1.839657
   2450.000       1.804900
   2452.500       1.780209
   2455.000       1.799270
   2457.500       1.797259
   2460.000       1.777775
   2462.500       1.809380
   2465.000       1.799006
   2467.500       1.812129
   2470.000       1.826874
   2472.500       1.822574
   2475.000       1.824698
   2477.500       1.825441
   2480.000       1.808002
   2482.500       1.811964
   2485.000       1.804929
   2487.500       1.822646
   2490.000       1.792388
   2492.500       1.791031
   2495.000       1.807968
   2497.500       1.773911
   2500.000       1.788413
   2502.500       1.777919
   2505.000       1.770523
   2507.500       1.779192
   2510.000       1.769147
   2512.500       1.756953
   2515.000       1.761051
   2517.500       1.756680
   2520.000       1.741961
   2522.500       1.714955
   2525.000       1.722169
   2527.500       1.717178
   2530.000       1.727520
   2532.500       1.723367
   2535.000       1.722093
   2537.500       1.733409
   2540.000       1.717757
   2542.500       1.711740
   2545.000       1.705902
   2547.500       1.692773
   2550.000       1.691038
   2552.500       1.695211
   2555.000       1.684920
   2557.500       1.669636
   2560.000       1.677853
   2562.500       1.670095
   2565.000       1.668914
   2567.500       1.652223
   2570.000       1.654131
   2572.500       1.644664
   2575.000       1.628156
   2577.500       1.641742
   2580.000       1.633940
   2582.500       1.624817
   2585.000       1.637239
